Voltage[V]	Current[mA]
50.000000	4.715348E-6
50.010000	7.141402E-6
50.020000	6.397515E-6
50.030000	4.129114E-6
50.040000	4.458101E-6
50.050000	4.454580E-6
50.060000	4.346263E-6
50.070000	6.868135E-6
50.080000	7.158480E-6
50.090000	6.590941E-6
50.100000	4.359912E-6
50.110000	3.930142E-6
50.120000	4.469703E-6
50.130000	6.033848E-6
50.140000	7.207909E-6
50.150000	7.071518E-6
50.160000	6.205947E-6
50.170000	4.724713E-6
50.180000	4.468438E-6
50.190000	4.419122E-6
50.200000	6.510427E-6
50.210000	7.087393E-6
50.220000	7.385486E-6
50.230000	7.068919E-6
50.240000	5.409829E-6
50.250000	4.574663E-6
50.260000	4.213093E-6
50.270000	4.593756E-6
50.280000	4.482090E-6
50.290000	4.482600E-6
50.300000	5.717948E-6
50.310000	7.524409E-6
50.320000	6.852043E-6
50.330000	5.996389E-6
50.340000	4.231771E-6
50.350000	4.656905E-6
50.360000	4.592402E-6
50.370000	4.681065E-6
50.380000	7.334190E-6
50.390000	7.419107E-6
50.400000	6.283785E-6
50.410000	4.314064E-6
50.420000	4.528931E-6
50.430000	4.469643E-6
50.440000	5.951678E-6
50.450000	7.032364E-6
50.460000	7.362792E-6
50.470000	7.408458E-6
50.480000	4.639878E-6
50.490000	4.582216E-6
50.500000	4.528200E-6
50.510000	7.198083E-6
50.520000	7.275026E-6
50.530000	5.623882E-6
50.540000	5.592690E-6
50.550000	4.549309E-6
50.560000	7.466891E-6
50.570000	5.008112E-6
50.580000	5.715885E-6
50.590000	5.462801E-6
50.600000	6.429252E-6
50.610000	4.747466E-6
50.620000	7.574366E-6
50.630000	7.790404E-6
50.640000	4.723923E-6
50.650000	5.456984E-6
50.660000	5.916990E-6
50.670000	4.513526E-6
50.680000	7.234833E-6
50.690000	7.185136E-6
50.700000	5.147203E-6
50.710000	5.635869E-6
50.720000	6.918122E-6
50.730000	7.247748E-6
50.740000	7.276437E-6
50.750000	7.333887E-6
50.760000	7.640775E-6
50.770000	6.737011E-6
50.780000	4.572418E-6
50.790000	7.664736E-6
50.800000	7.348967E-6
50.810000	5.624331E-6
50.820000	4.286476E-6
50.830000	4.645370E-6
50.840000	4.592347E-6
50.850000	7.318277E-6
50.860000	7.307206E-6
50.870000	7.725659E-6
50.880000	4.777703E-6
50.890000	7.751403E-6
50.900000	7.396447E-6
50.910000	4.932251E-6
50.920000	6.820759E-6
50.930000	4.905880E-6
50.940000	7.638735E-6
50.950000	4.878717E-6
50.960000	7.265083E-6
50.970000	4.480551E-6
50.980000	7.694504E-6
50.990000	4.336433E-6
51.000000	7.530129E-6
51.010000	5.904008E-6
51.020000	4.815171E-6
51.030000	7.546383E-6
51.040000	7.889272E-6
51.050000	4.850861E-6
51.060000	7.760216E-6
51.070000	6.497807E-6
51.080000	7.329996E-6
51.090000	5.014104E-6
51.100000	4.856918E-6
51.110000	6.782789E-6
51.120000	5.577069E-6
51.130000	4.906481E-6
51.140000	4.792514E-6
51.150000	4.973037E-6
51.160000	5.379589E-6
51.170000	7.557864E-6
51.180000	4.964273E-6
51.190000	7.679950E-6
51.200000	7.309719E-6
51.210000	5.069186E-6
51.220000	4.974769E-6
51.230000	7.570747E-6
51.240000	7.923139E-6
51.250000	7.324618E-6
51.260000	5.199760E-6
51.270000	4.426065E-6
51.280000	5.037554E-6
51.290000	4.940145E-6
51.300000	5.864556E-6
51.310000	7.893344E-6
51.320000	7.964741E-6
51.330000	7.715079E-6
51.340000	4.962531E-6
51.350000	7.673417E-6
51.360000	5.989921E-6
51.370000	4.791548E-6
51.380000	4.815884E-6
51.390000	8.213505E-6
51.400000	8.284167E-6
51.410000	7.615332E-6
51.420000	5.375901E-6
51.430000	6.736161E-6
51.440000	6.071299E-6
51.450000	4.877057E-6
51.460000	4.778553E-6
51.470000	8.127550E-6
51.480000	5.044279E-6
51.490000	7.365144E-6
51.500000	5.349410E-6
51.510000	5.392214E-6
51.520000	5.407046E-6
51.530000	5.419232E-6
51.540000	5.346251E-6
51.550000	4.544401E-6
51.560000	8.196468E-6
51.570000	8.461825E-6
51.580000	5.862657E-6
51.590000	7.298083E-6
51.600000	6.183147E-6
51.610000	6.069724E-6
51.620000	6.218170E-6
51.630000	8.809393E-6
51.640000	5.907008E-6
51.650000	6.101014E-6
51.660000	6.214746E-6
51.670000	6.342236E-6
51.680000	6.499633E-6
51.690000	6.623015E-6
51.700000	6.809587E-6
51.710000	7.014881E-6
51.720000	7.294153E-6
51.730000	7.508621E-6
51.740000	7.762583E-6
51.750000	8.065981E-6
51.760000	8.453268E-6
51.770000	8.831960E-6
51.780000	9.165481E-6
51.790000	9.589792E-6
51.800000	9.967212E-6
51.810000	1.034821E-5
51.820000	1.076481E-5
51.830000	1.126521E-5
51.840000	1.184071E-5
51.850000	1.504980E-5
51.860000	1.429535E-5
51.870000	1.369134E-5
51.880000	1.499098E-5
51.890000	1.464840E-5
51.900000	1.527554E-5
51.910000	1.597227E-5
51.920000	1.810790E-5
51.930000	1.791801E-5
51.940000	1.904674E-5
51.950000	1.929219E-5
51.960000	2.061235E-5
51.970000	2.015344E-5
51.980000	2.101836E-5
51.990000	2.150601E-5
52.000000	2.256670E-5
52.010000	2.350484E-5
52.020000	2.440168E-5
52.030000	2.500179E-5
52.040000	2.567958E-5
52.050000	2.668074E-5
52.060000	2.781898E-5
52.070000	2.835998E-5
52.080000	2.925034E-5
52.090000	3.033364E-5
52.100000	3.132810E-5
52.110000	3.256594E-5
52.120000	3.365852E-5
52.130000	3.440222E-5
52.140000	3.499741E-5
52.150000	3.649902E-5
52.160000	3.735475E-5
52.170000	3.823754E-5
52.180000	3.983281E-5
52.190000	4.060867E-5
52.200000	4.156573E-5
52.210000	4.292442E-5
52.220000	4.450051E-5
52.230000	4.526041E-5
52.240000	4.597180E-5
52.250000	4.745163E-5
52.260000	4.849696E-5
52.270000	4.917894E-5
52.280000	5.134063E-5
52.290000	5.221918E-5
52.300000	5.332811E-5
52.310000	5.506649E-5
52.320000	5.642481E-5
52.330000	5.744366E-5
52.340000	5.868457E-5
52.350000	5.957316E-5
52.360000	6.159184E-5
52.370000	6.252780E-5
52.380000	6.402139E-5
52.390000	6.526795E-5
52.400000	6.686365E-5
52.410000	6.805934E-5
52.420000	6.984191E-5
52.430000	7.148004E-5
52.440000	7.283752E-5
52.450000	7.392872E-5
52.460000	7.584946E-5
52.470000	7.715692E-5
52.480000	7.871867E-5
52.490000	8.048980E-5
52.500000	8.187626E-5
52.510000	8.402966E-5
52.520000	8.442909E-5
52.530000	8.646120E-5
52.540000	8.795077E-5
52.550000	8.990616E-5
52.560000	9.164281E-5
52.570000	9.537036E-5
52.580000	9.716669E-5
52.590000	9.753185E-5
52.600000	9.874688E-5
52.610000	0.000101
52.620000	0.000102
52.630000	0.000105
52.640000	0.000106
52.650000	0.000109
52.660000	0.000110
52.670000	0.000112
52.680000	0.000114
52.690000	0.000115
52.700000	0.000117
52.710000	0.000119
52.720000	0.000121
52.730000	0.000123
52.740000	0.000124
52.750000	0.000126
52.760000	0.000129
52.770000	0.000131
52.780000	0.000132
52.790000	0.000134
52.800000	0.000136
52.810000	0.000138
52.820000	0.000140
52.830000	0.000142
52.840000	0.000144
52.850000	0.000146
52.860000	0.000148
52.870000	0.000151
52.880000	0.000153
52.890000	0.000154
52.900000	0.000158
52.910000	0.000159
52.920000	0.000161
52.930000	0.000163
52.940000	0.000164
52.950000	0.000168
52.960000	0.000170
52.970000	0.000171
52.980000	0.000173
52.990000	0.000176
53.000000	0.000178
53.010000	0.000180
53.020000	0.000182
53.030000	0.000184
53.040000	0.000186
53.050000	0.000189
53.060000	0.000192
53.070000	0.000194
53.080000	0.000196
53.090000	0.000198
53.100000	0.000201
53.110000	0.000203
53.120000	0.000205
53.130000	0.000207
53.140000	0.000209
53.150000	0.005088
53.160000	0.000215
53.170000	0.000217
53.180000	0.000218
53.190000	0.000222
53.200000	0.000224
53.210000	0.000227
53.220000	0.000228
53.230000	0.000232
53.240000	0.000233
53.250000	0.000236
53.260000	0.000240
53.270000	0.000241
53.280000	0.000244
53.290000	0.000247
53.300000	0.000250
53.310000	0.000252
53.320000	0.000254
53.330000	0.000258
53.340000	0.000260
53.350000	0.000262
53.360000	0.000266
53.370000	0.000268
53.380000	0.000270
53.390000	0.000273
53.400000	0.000277
53.410000	0.000280
53.420000	0.000282
53.430000	0.000286
53.440000	0.000287
53.450000	0.000289
53.460000	0.000293
53.470000	0.000295
53.480000	0.000298
53.490000	0.000300
53.500000	0.000304
53.510000	0.000309
53.520000	0.000308
53.530000	0.000312
53.540000	0.000315
53.550000	0.000320
53.560000	0.000321
53.570000	0.000324
53.580000	0.000328
53.590000	0.000328
53.600000	0.000334
53.610000	0.000337
53.620000	0.000338
53.630000	0.000344
53.640000	0.000346
53.650000	0.000349
53.660000	0.000352
53.670000	0.000354
53.680000	0.000357
53.690000	0.000359
53.700000	0.000363
53.710000	0.000365
53.720000	0.000368
53.730000	0.000372
53.740000	0.000375
53.750000	0.000378
53.760000	0.000380
53.770000	0.000386
53.780000	0.000389
53.790000	0.000391
53.800000	0.000395
53.810000	0.000399
53.820000	0.000400
53.830000	0.000403
53.840000	0.000406
53.850000	0.000411
53.860000	0.000413
53.870000	0.000417
53.880000	0.000420
53.890000	0.000423
53.900000	0.000427
53.910000	0.000429
53.920000	0.000434
53.930000	0.000436
53.940000	0.000441
53.950000	0.000444
53.960000	0.000446
53.970000	0.000451
53.980000	0.000451
53.990000	0.000456
54.000000	0.000460
